Hour,Load (kW)
1,98.065
2,98.065
3,98.065
4,98.065
5,98.065
6,98.065
7,98.065
8,59.874
9,52.236
10,52.236
11,52.236
12,52.236
13,52.236
14,52.236
15,52.236
16,52.236
17,52.236
18,75.15
19,98.065
20,98.065
21,98.065
22,98.065
23,98.065
24,98.065
25,111.86
26,111.86
27,111.86
28,111.86
29,111.86
30,149.992
31,589.034
32,487.085
33,568.883
34,488.453
35,470.867
36,477.187
37,482.706
38,468
39,457.068
40,452.695
41,462.077
42,463.445
43,405.162
44,411.902
45,380.373
46,388.397
47,122.688
48,111.86
49,111.86
50,111.86
51,111.86
52,131.788
53,141.214
54,152.147
55,589.457
56,466.604
57,531.501
58,479.825
59,468.616
60,477.65
61,492.67
62,481.693
63,463.441
64,466.395
65,469.322
66,441.756
67,375.02
68,386.107
69,352.967
70,363.327
71,122.688
72,111.86
73,111.86
74,111.86
75,111.86
76,111.86
77,111.86
78,122.688
79,437.902
80,401.837
81,535.133
82,488.99
83,469.982
84,467.817
85,468.18
86,467.504
87,458.303
88,459.909
89,469.636
90,463.331
91,384.917
92,383.447
93,339.329
94,354.546
95,122.688
96,111.86
97,111.86
98,111.86
99,111.86
100,111.86
101,111.86
102,122.688
103,303.872
104,329.236
105,519.227
106,508.946
107,523.176
108,518.716
109,520.407
110,533.654
111,525.809
112,521.285
113,533.871
114,499.187
115,394.498
116,394.01
117,343.354
118,342.238
119,122.688
120,111.86
121,111.86
122,111.86
123,111.86
124,111.86
125,111.86
126,122.688
127,285.048
128,309.977
129,536.243
130,524.387
131,540.483
132,559.387
133,563.045
134,581.318
135,567.736
136,559.851
137,552.382
138,503.136
139,396.387
140,390.645
141,339.857
142,319.996
143,122.688
144,111.86
145,98.065
146,98.065
147,98.065
148,98.065
149,98.065
150,98.065
151,297.087
152,257.282
153,326.684
154,319.868
155,301.152
156,305.332
157,305.443
158,297.345
159,198.675
160,201.205
161,203.979
162,204.806
163,98.065
164,98.065
165,98.065
166,98.065
167,98.065
168,98.065
169,98.065
170,98.065
171,98.065
172,98.065
173,98.065
174,98.065
175,98.065
176,59.874
177,97.946
178,129.653
179,156.285
180,136.978
181,159.484
182,141.832
183,168.123
184,143.185
185,157.769
186,134.308
187,98.065
188,98.065
189,98.065
190,98.065
191,98.065
192,98.065
193,111.86
194,111.86
195,111.86
196,111.86
197,111.86
198,122.688
199,385.932
200,356.233
201,489.25
202,462.755
203,472.366
204,498.763
205,518.146
206,534.644
207,537.776
208,519.438
209,513.861
210,468.475
211,375.705
212,373.518
213,324.417
214,327.394
215,122.688
216,111.86
217,111.86
218,111.86
219,111.86
220,111.86
221,111.86
222,122.688
223,285.061
224,307.41
225,517.152
226,497.358
227,506.771
228,523.491
229,515.989
230,524.881
231,516.351
232,510.954
233,514.53
234,476.907
235,379.398
236,377.054
237,326.65
238,324.77
239,122.688
240,111.86
241,111.86
242,111.86
243,111.86
244,111.86
245,111.86
246,122.688
247,294.063
248,311.189
249,500.04
250,468.37
251,460.616
252,468.735
253,492.244
254,530.323
255,542.465
256,548.851
257,542.712
258,487.334
259,383.745
260,378.34
261,326.467
262,321.709
263,122.688
264,111.86
265,111.86
266,111.86
267,111.86
268,111.86
269,111.86
270,122.688
271,326.255
272,353.466
273,563.008
274,542.631
275,542.184
276,523.639
277,488.351
278,474.614
279,461
280,461.787
281,477.918
282,468.546
283,412.694
284,412.931
285,373.025
286,379.012
287,122.688
288,111.86
289,111.86
290,111.86
291,111.86
292,132.305
293,141.921
294,152.507
295,562.764
296,472.543
297,569.925
298,481.414
299,462.121
300,466.741
301,472.453
302,468.219
303,460.599
304,466.382
305,482.184
306,465.192
307,393.837
308,391.402
309,347.976
310,353.579
311,122.688
312,111.86
313,98.065
314,98.065
315,98.065
316,98.065
317,98.065
318,98.065
319,326.173
320,297.4
321,350.171
322,340.959
323,345.114
324,364.492
325,365
326,348.719
327,244.669
328,234.364
329,225.939
330,220.773
331,98.065
332,98.065
333,98.065
334,98.065
335,98.065
336,98.065
337,98.065
338,98.065
339,98.065
340,98.065
341,98.065
342,98.065
343,98.065
344,59.874
345,105.364
346,141.066
347,166.977
348,145.706
349,172.003
350,151.187
351,176.721
352,151.276
353,168.809
354,141.721
355,98.065
356,98.065
357,98.065
358,98.065
359,98.065
360,98.065
361,98.065
362,98.065
363,98.065
364,98.065
365,98.065
366,98.065
367,98.065
368,59.874
369,74.817
370,135.906
371,151.588
372,152.162
373,168.55
374,163.721
375,167.139
376,157.063
377,159.042
378,134.964
379,106.397
380,98.065
381,98.065
382,98.065
383,98.065
384,98.065
385,111.86
386,111.86
387,111.86
388,111.86
389,111.86
390,122.688
391,308.489
392,305.166
393,488.672
394,478.397
395,495.077
396,522.915
397,534.314
398,546.54
399,528.978
400,513.747
401,516.234
402,471.518
403,375.037
404,373.519
405,322.142
406,320.761
407,122.688
408,111.86
409,111.86
410,111.86
411,111.86
412,111.86
413,111.86
414,122.688
415,298.282
416,304.62
417,499.174
418,492.538
419,498.498
420,512.939
421,515.132
422,539.345
423,523.993
424,520.14
425,525.539
426,480.585
427,373.825
428,372.295
429,323.244
430,323.641
431,122.688
432,111.86
433,111.86
434,111.86
435,111.86
436,111.86
437,111.86
438,122.688
439,280.405
440,312.258
441,517.932
442,493.606
443,505.642
444,537.59
445,547.018
446,569.422
447,549.956
448,538.6
449,539.242
450,495.001
451,386.271
452,383.137
453,331.734
454,328.772
455,122.688
456,111.86
457,111.86
458,111.86
459,111.86
460,111.86
461,111.86
462,122.688
463,280.057
464,300.617
465,509.892
466,516.583
467,536.578
468,543.846
469,548.003
470,567.594
471,548.978
472,546.451
473,550.186
474,492.606
475,385.957
476,377.372
477,324.431
478,325.082
479,122.688
480,111.86
481,98.065
482,98.065
483,98.065
484,98.065
485,98.065
486,98.065
487,271.963
488,237.594
489,326.814
490,340.178
491,336.264
492,343.886
493,343.206
494,328.772
495,232.229
496,228.03
497,240.604
498,227.63
499,98.065
500,98.065
501,98.065
502,98.065
503,98.065
504,98.065
505,98.065
506,98.065
507,98.065
508,98.065
509,98.065
510,98.065
511,98.065
512,59.874
513,121.481
514,141.896
515,165.125
516,145.835
517,169.386
518,153.085
519,174.271
520,148.736
521,166.52
522,59.874
523,98.065
524,98.065
525,98.065
526,98.065
527,98.065
528,98.065
529,111.86
530,111.86
531,111.86
532,111.86
533,111.86
534,122.688
535,277.015
536,304.674
537,530.808
538,545.038
539,561.382
540,572.838
541,567.861
542,583.013
543,573.086
544,583.883
545,585.56
546,511.061
547,390.557
548,378.402
549,325.958
550,326.487
551,122.688
552,111.86
553,111.86
554,111.86
555,111.86
556,111.86
557,111.86
558,122.688
559,279.602
560,292.564
561,524.029
562,540.559
563,553.316
564,561.38
565,557.307
566,582.047
567,567.849
568,547.346
569,541.847
570,492.198
571,385.864
572,375.213
573,323.921
574,324.749
575,122.688
576,111.86
577,111.86
578,111.86
579,111.86
580,111.86
581,111.86
582,122.688
583,274.577
584,296.678
585,524.663
586,538.922
587,544.093
588,557.802
589,560.251
590,576.922
591,572.888
592,577.116
593,576.916
594,498.069
595,379.422
596,366.748
597,312.916
598,312.924
599,122.688
600,111.86
601,111.86
602,111.86
603,111.86
604,111.86
605,111.86
606,122.688
607,267.17
608,285.989
609,519.254
610,528.298
611,538.166
612,559.898
613,563.668
614,581.926
615,563.773
616,554.1
617,563.772
618,500.041
619,388.781
620,380.071
621,327.511
622,327.684
623,122.688
624,111.86
625,111.86
626,111.86
627,111.86
628,111.86
629,111.86
630,122.688
631,277.706
632,306.087
633,515.227
634,495.603
635,503.657
636,531.792
637,549.207
638,579.07
639,566.602
640,551.028
641,539.47
642,481.005
643,378.997
644,373.356
645,322.444
646,322.483
647,122.688
648,111.86
649,98.065
650,98.065
651,98.065
652,98.065
653,98.065
654,98.065
655,283.437
656,257.674
657,338.408
658,329.713
659,321.286
660,338.889
661,341.661
662,350.017
663,244.058
664,225.869
665,213.519
666,182.4
667,98.065
668,98.065
669,98.065
670,98.065
671,98.065
672,98.065
673,98.065
674,98.065
675,98.065
676,98.065
677,98.065
678,98.065
679,98.065
680,59.874
681,52.236
682,52.236
683,72.991
684,104.579
685,127.424
686,115.084
687,133.39
688,118.011
689,107.972
690,73.414
691,98.065
692,98.065
693,98.065
694,98.065
695,98.065
696,98.065
697,111.86
698,111.86
699,111.86
700,111.86
701,111.86
702,122.688
703,412.918
704,371.976
705,495.189
706,467.436
707,469.993
708,481.308
709,483.649
710,494.324
711,484.959
712,480.175
713,481.264
714,433.793
715,354.666
716,355.438
717,310.695
718,317.578
719,122.688
720,111.86
721,111.86
722,111.86
723,111.86
724,111.86
725,111.86
726,122.688
727,417.538
728,347.181
729,489.474
730,464.18
731,466.554
732,477.054
733,484.433
734,491.577
735,487.728
736,491.96
737,485.889
738,426.861
739,346.254
740,351.519
741,312.42
742,321.045
743,122.688
744,111.86
745,111.86
746,111.86
747,111.86
748,111.86
749,111.86
750,122.688
751,339.981
752,324.116
753,489.37
754,477.203
755,489.872
756,499.049
757,502.637
758,511.649
759,502.367
760,511.494
761,517.064
762,452.349
763,360.692
764,361.338
765,312.241
766,313.162
767,122.688
768,111.86
769,111.86
770,111.86
771,111.86
772,111.86
773,111.86
774,122.688
775,316.136
776,311.017
777,489.28
778,473.872
779,481.209
780,496.036
781,499.654
782,512.537
783,501.411
784,498.588
785,504.352
786,454.944
787,380.565
788,377.43
789,325.89
790,326.644
791,122.688
792,111.86
793,111.86
794,111.86
795,111.86
796,111.86
797,111.86
798,122.688
799,285.399
800,308.467
801,522.193
802,492.407
803,496.154
804,524.571
805,542.28
806,557.887
807,550.102
808,536.594
809,531.155
810,470.493
811,375.579
812,372.62
813,324.95
814,325.038
815,122.688
816,111.86
817,98.065
818,98.065
819,98.065
820,98.065
821,98.065
822,98.065
823,308.062
824,271.245
825,348.15
826,351.539
827,360.248
828,346.774
829,315.756
830,309.087
831,217.312
832,212.64
833,219.343
834,202.459
835,98.065
836,98.065
837,98.065
838,98.065
839,98.065
840,98.065
841,98.065
842,98.065
843,98.065
844,98.065
845,98.065
846,98.065
847,98.065
848,52.236
849,52.236
850,52.236
851,52.236
852,52.236
853,52.236
854,52.236
855,52.236
856,52.236
857,52.236
858,52.236
859,98.065
860,98.065
861,98.065
862,98.065
863,98.065
864,98.065
865,111.86
866,111.86
867,111.86
868,111.86
869,111.86
870,122.688
871,296.045
872,302.851
873,491.346
874,469.965
875,474.982
876,489.639
877,491.739
878,498.396
879,485.586
880,481.101
881,485.091
882,436.056
883,369.173
884,368.556
885,318.169
886,317.447
887,122.688
888,111.86
889,111.86
890,111.86
891,111.86
892,111.86
893,111.86
894,122.688
895,279.367
896,303.149
897,518.631
898,504.964
899,517.145
900,545.573
901,557.552
902,576.006
903,560.824
904,549.548
905,552.206
906,491.452
907,391.017
908,381.83
909,329.663
910,327.166
911,122.688
912,111.86
913,111.86
914,111.86
915,111.86
916,111.86
917,111.86
918,122.688
919,273.831
920,276.306
921,495.502
922,472.41
923,473.886
924,487.862
925,489.671
926,503.762
927,500.904
928,509.458
929,518.865
930,449.379
931,348.05
932,344.475
933,297.981
934,302.832
935,122.688
936,111.86
937,111.86
938,111.86
939,111.86
940,111.86
941,111.86
942,122.688
943,353.6
944,309.285
945,483.579
946,457.031
947,455.218
948,466.222
949,471.365
950,473.473
951,467.287
952,471.477
953,480.313
954,422.473
955,346.671
956,350.173
957,310.421
958,320.341
959,122.688
960,111.86
961,111.86
962,111.86
963,111.86
964,111.86
965,111.86
966,122.688
967,409.822
968,355.247
969,490.848
970,452.917
971,448.6
972,453.675
973,456.708
974,453.951
975,442.923
976,443.118
977,447.365
978,405.008
979,358.972
980,366.585
981,331.778
982,337.72
983,122.688
984,111.86
985,98.065
986,98.065
987,98.065
988,98.065
989,98.065
990,98.065
991,391.603
992,308.971
993,368.199
994,341.473
995,322.844
996,321.377
997,308.572
998,292.587
999,204.768
1000,205.969
1001,221.853
1002,222.116
1003,98.065
1004,98.065
1005,98.065
1006,98.065
1007,98.065
1008,98.065
1009,98.065
1010,98.065
1011,98.065
1012,98.065
1013,98.065
1014,98.065
1015,98.065
1016,52.236
1017,52.236
1018,52.236
1019,52.236
1020,83.504
1021,117.641
1022,116.37
1023,124.262
1024,119.933
1025,106.755
1026,61.902
1027,98.065
1028,98.065
1029,98.065
1030,98.065
1031,98.065
1032,98.065
1033,111.86
1034,111.86
1035,111.86
1036,111.86
1037,111.86
1038,122.688
1039,454.331
1040,384.19
1041,502.105
1042,470.629
1043,473.947
1044,487.935
1045,491.542
1046,493.577
1047,484.92
1048,482.425
1049,489.481
1050,433.651
1051,360.585
1052,364.706
1053,320.778
1054,323.443
1055,122.688
1056,111.86
1057,111.86
1058,111.86
1059,111.86
1060,111.86
1061,111.86
1062,122.688
1063,330.866
1064,304.765
1065,497.534
1066,483.326
1067,484.44
1068,492.411
1069,495.035
1070,507.25
1071,497.922
1072,493.292
1073,501.652
1074,442.14
1075,359.389
1076,361.158
1077,312.791
1078,311.762
1079,122.688
1080,111.86
1081,111.86
1082,111.86
1083,111.86
1084,111.86
1085,111.86
1086,122.688
1087,292.095
1088,287.072
1089,505.854
1090,498.253
1091,511.513
1092,517.314
1093,502.031
1094,512.723
1095,516.615
1096,526.848
1097,537.744
1098,463.897
1099,367.894
1100,363.542
1101,314.423
1102,314.08
1103,122.688
1104,111.86
1105,111.86
1106,111.86
1107,111.86
1108,111.86
1109,111.86
1110,122.688
1111,287.303
1112,290.654
1113,496.006
1114,481.749
1115,492.939
1116,517.086
1117,520.415
1118,525.041
1119,514.265
1120,517.337
1121,523.594
1122,455.215
1123,357.592
1124,360.858
1125,311.88
1126,312.961
1127,122.688
1128,111.86
1129,111.86
1130,111.86
1131,111.86
1132,111.86
1133,111.86
1134,122.688
1135,265.925
1136,291.09
1137,510.062
1138,493.48
1139,505.767
1140,526.291
1141,517.552
1142,527.767
1143,512.216
1144,509.706
1145,527.621
1146,469.683
1147,364.288
1148,363.543
1149,314.198
1150,315.526
1151,122.688
1152,111.86
1153,98.065
1154,98.065
1155,98.065
1156,98.065
1157,98.065
1158,98.065
1159,266.74
1160,229.608
1161,330.864
1162,351.916
1163,355.809
1164,359.008
1165,357.986
1166,365.925
1167,256.228
1168,232.488
1169,224.148
1170,195.66
1171,90.427
1172,98.065
1173,98.065
1174,98.065
1175,98.065
1176,98.065
1177,98.065
1178,98.065
1179,98.065
1180,98.065
1181,98.065
1182,98.065
1183,90.427
1184,99.799
1185,145.933
1186,146.473
1187,162.723
1188,158.858
1189,165.342
1190,156.803
1191,170.889
1192,163.927
1193,163.79
1194,90.675
1195,90.427
1196,98.065
1197,98.065
1198,98.065
1199,98.065
1200,98.065
1201,98.065
1202,98.065
1203,98.065
1204,98.065
1205,98.065
1206,98.065
1207,90.427
1208,97.159
1209,146.723
1210,169.081
1211,146.253
1212,173.5
1213,149.069
1214,176.562
1215,150.347
1216,175.528
1217,145.894
1218,79.961
1219,90.427
1220,98.065
1221,98.065
1222,98.065
1223,98.065
1224,98.065
1225,111.86
1226,111.86
1227,111.86
1228,111.86
1229,111.86
1230,122.688
1231,265.231
1232,291.945
1233,529.353
1234,522.677
1235,551.957
1236,570.759
1237,565.426
1238,584.977
1239,576.709
1240,578.196
1241,582.496
1242,508.436
1243,395.333
1244,388.897
1245,329.582
1246,330.381
1247,122.688
1248,111.86
1249,111.86
1250,111.86
1251,111.86
1252,111.86
1253,111.86
1254,122.688
1255,269.09
1256,294.853
1257,543.077
1258,547.21
1259,562.48
1260,584.843
1261,583.216
1262,604.782
1263,598.379
1264,607.486
1265,602.021
1266,515.615
1267,391.26
1268,382.258
1269,322.563
1270,322.56
1271,122.688
1272,111.86
1273,111.86
1274,111.86
1275,111.86
1276,111.86
1277,111.86
1278,122.688
1279,268.991
1280,294.266
1281,556.333
1282,573.133
1283,590.343
1284,606.153
1285,599.365
1286,605.25
1287,573.774
1288,572.467
1289,570.615
1290,501.551
1291,391.031
1292,387.946
1293,331.735
1294,328.884
1295,122.688
1296,111.86
1297,111.86
1298,111.86
1299,111.86
1300,111.86
1301,111.86
1302,122.688
1303,271.806
1304,294.604
1305,543.505
1306,544.878
1307,562.363
1308,589.268
1309,585.853
1310,595.871
1311,595.042
1312,602.111
1313,605.171
1314,526.9
1315,394.655
1316,384.422
1317,325.387
1318,322.937
1319,122.688
1320,111.86
1321,98.065
1322,98.065
1323,98.065
1324,98.065
1325,98.065
1326,98.065
1327,266.543
1328,239.321
1329,339.071
1330,351.009
1331,356.383
1332,386.054
1333,399.667
1334,395.59
1335,253.354
1336,226.961
1337,211.897
1338,183.052
1339,90.427
1340,98.065
1341,98.065
1342,98.065
1343,98.065
1344,98.065
1345,98.065
1346,98.065
1347,98.065
1348,98.065
1349,98.065
1350,98.065
1351,90.427
1352,52.236
1353,58.875
1354,79.727
1355,52.236
1356,81.811
1357,124.306
1358,114.311
1359,136.005
1360,120.779
1361,134.959
1362,115.249
1363,114.427
1364,98.065
1365,98.065
1366,98.065
1367,98.065
1368,98.065
1369,111.86
1370,111.86
1371,111.86
1372,111.86
1373,111.86
1374,122.688
1375,364.177
1376,338.1
1377,494.36
1378,472.023
1379,475.558
1380,490.499
1381,498.711
1382,512.81
1383,503.865
1384,497.864
1385,496.904
1386,448.24
1387,369.779
1388,377.923
1389,329.719
1390,330.529
1391,122.688
1392,111.86
1393,111.86
1394,111.86
1395,111.86
1396,111.86
1397,111.86
1398,122.688
1399,266.106
1400,295.127
1401,540.909
1402,539.625
1403,547.887
1404,559.91
1405,556.889
1406,575
1407,570.07
1408,580.755
1409,580.554
1410,504.733
1411,381.168
1412,368.175
1413,311.699
1414,310.049
1415,122.688
1416,111.86
1417,111.86
1418,111.86
1419,111.86
1420,111.86
1421,111.86
1422,122.688
1423,300.272
1424,277.754
1425,487.437
1426,475.924
1427,480.046
1428,492.792
1429,496.497
1430,508.726
1431,509.129
1432,518.268
1433,526.111
1434,458.758
1435,348.109
1436,347.183
1437,299.499
1438,299.089
1439,122.688
1440,111.86
1441,111.86
1442,111.86
1443,111.86
1444,111.86
1445,111.86
1446,122.688
1447,303.207
1448,284.249
1449,498.514
1450,492.601
1451,492.858
1452,501.882
1453,502.431
1454,518.529
1455,515.673
1456,502.881
1457,508.27
1458,444.538
1459,350.397
1460,356.36
1461,308.585
1462,307.626
1463,122.688
1464,111.86
1465,111.86
1466,111.86
1467,111.86
1468,111.86
1469,111.86
1470,122.688
1471,245.883
1472,273.738
1473,508.228
1474,503.652
1475,510.685
1476,534.059
1477,537.772
1478,561.101
1479,559.366
1480,556.145
1481,549.062
1482,484.947
1483,380.091
1484,378.288
1485,327.2
1486,327.405
1487,122.688
1488,111.86
1489,98.065
1490,98.065
1491,98.065
1492,98.065
1493,98.065
1494,98.065
1495,261.386
1496,238.468
1497,338.89
1498,351.812
1499,367.957
1500,393.606
1501,387.772
1502,383.613
1503,271.269
1504,258.833
1505,245.487
1506,206.74
1507,82.789
1508,98.065
1509,98.065
1510,98.065
1511,98.065
1512,98.065
1513,98.065
1514,98.065
1515,98.065
1516,98.065
1517,98.065
1518,98.065
1519,82.789
1520,52.236
1521,52.236
1522,52.236
1523,162.338
1524,160.411
1525,186.194
1526,157.319
1527,184.101
1528,143.697
1529,147.695
1530,124.679
1531,98.157
1532,98.065
1533,98.065
1534,98.065
1535,98.065
1536,98.065
1537,111.86
1538,111.86
1539,111.86
1540,111.86
1541,111.86
1542,122.688
1543,267.328
1544,295.812
1545,534.284
1546,527.01
1547,533.93
1548,537.735
1549,525.772
1550,551.096
1551,541.035
1552,541.159
1553,548.308
1554,482.499
1555,369.194
