Hour,Load (kW)
1,295.858
2,299.385
3,303.155
4,304.067
5,319.019
6,317.358
7,362.262
8,364.899
9,398.759
10,394.702
11,398.166
12,399.737
13,397.489
14,393.483
15,394.605
16,394.888
17,383.201
18,361.753
19,342.832
20,340.133
21,321.454
22,319.48
23,303.584
24,303.782
25,306.104
26,306.512
27,305.739
28,304.429
29,370.234
30,378.142
31,511.652
32,582.335
33,595.037
34,615.612
35,628.089
36,643.392
37,633.345
38,649.39
39,649.337
40,650.045
41,648.305
42,652.309
43,504.729
44,501.713
45,419.618
46,398.158
47,340.564
48,338.842
49,336.09
50,332.584
51,326.996
52,325.819
53,391.356
54,400.47
55,531.234
56,604.614
57,615.554
58,631.658
59,632.741
60,626.963
61,606.273
62,623.787
63,625.201
64,626.147
65,629.477
66,634.049
67,480.113
68,476.019
69,394.675
70,377.347
71,321.931
72,321.392
73,314.913
74,314.805
75,314.936
76,315.307
77,381.041
78,381.892
79,519.598
80,593.03
81,605.854
82,622.575
83,631.312
84,641.384
85,631.1
86,651.422
87,661.942
88,669.209
89,671.771
90,679.776
91,526.665
92,521.332
93,438.004
94,419.402
95,366.12
96,366.428
97,360.267
98,358.932
99,358.187
100,353.467
101,412.492
102,420.427
103,560.373
104,634.683
105,646.691
106,664.956
107,671.91
108,668.127
109,641.299
110,654.338
111,654.717
112,653.299
113,637.535
114,635.593
115,479.772
116,475.82
117,395.146
118,376.548
119,321.85
120,321.939
121,316.031
122,315.905
123,315.723
124,317.083
125,384.612
126,387.093
127,524.82
128,598.257
129,611.037
130,625.433
131,627.355
132,628.759
133,609.094
134,626.225
135,627.28
136,627.965
137,631.814
138,636.95
139,481.661
140,477.867
141,396.832
142,378.016
143,324.045
144,324.514
145,319.726
146,323.055
147,324.177
148,323.772
149,338.183
150,337.091
151,382.193
152,448.097
153,444.568
154,501.295
155,504.546
156,504.838
157,489.408
158,486.179
159,486.197
160,442.785
161,446.106
162,430.385
163,405.285
164,401.677
165,336.658
166,336.337
167,321.32
168,321.744
169,307.439
170,307.446
171,306.651
172,306.76
173,323.127
174,323.657
175,370.574
176,371.911
177,405.579
178,401.837
179,405.235
180,405.534
181,404.703
182,401.034
183,401.011
184,400.844
185,388.378
186,367.885
187,346.837
188,343.141
189,328.803
190,329.067
191,314.159
192,314.619
193,316.675
194,316.685
195,317.865
196,319.788
197,384.474
198,384.451
199,520.806
200,594.436
201,606.86
202,621.835
203,624.907
204,624.845
205,605.019
206,622.575
207,624.98
208,631.94
209,632.267
210,634.311
211,489.21
212,494.315
213,420.968
214,407.96
215,355.431
216,355.364
217,343.697
218,337.818
219,333.678
220,331.913
221,399.992
222,407.106
223,541.133
224,613.009
225,625.137
226,646.247
227,661.318
228,674.597
229,657.561
230,672.373
231,674.127
232,675.474
233,679.066
234,683.836
235,530.034
236,519.709
237,425.119
238,395.717
239,336.682
240,339.143
241,335.402
242,331.739
243,328.253
244,324.593
245,385.361
246,390.439
247,526.695
248,600.264
249,617.311
250,647.974
251,669.878
252,674.968
253,659.019
254,678.282
255,678.657
256,677.189
257,679.51
258,682.994
259,528.396
260,514.553
261,418.274
262,388.295
263,331.104
264,327.692
265,320.439
266,320.037
267,316.815
268,314.739
269,379.153
270,390.33
271,533.885
272,611.332
273,624.472
274,640.008
275,642.694
276,642.172
277,621.136
278,637.546
279,635.849
280,635.034
281,638.471
282,643.793
283,490.608
284,487.383
285,404.511
286,392.451
287,341.826
288,333.353
289,327.026
290,325.167
291,323.184
292,323.426
293,387.429
294,390.385
295,527.61
296,604.481
297,615.453
298,626.562
299,629.452
300,635.179
301,617.086
302,631.306
303,632.218
304,633.141
305,635.43
306,637.463
307,478.733
308,470.333
309,387.8
310,368.493
311,313.613
312,313.772
313,308.243
314,308.262
315,308.226
316,308.188
317,323.469
318,323.955
319,368.247
320,437.163
321,432.64
322,493.646
323,503.769
324,513.776
325,510.65
326,516.656
327,525.084
328,479.938
329,481.362
330,458.473
331,429.017
332,419.665
333,351.792
334,345.963
335,326.673
336,325.244
337,310.05
338,308.804
339,306.354
340,305.421
341,319.369
342,317.753
343,360.318
344,359.82
345,396.337
346,398.583
347,413.195
348,429.278
349,446.45
350,453.793
351,456.764
352,459.605
353,448.239
354,424.434
355,402.933
356,382.335
357,360.577
358,354.093
359,333.155
360,333.868
361,324.91
362,322.072
363,321.051
364,319.936
365,332.417
366,334.946
367,376.924
368,373.377
369,414.711
370,418.718
371,430.705
372,445.12
373,447.611
374,445.037
375,447.685
376,446.376
377,429.902
378,388.017
379,353.304
380,343.9
381,328.766
382,326.01
383,308.666
384,310.517
385,314.621
386,315.12
387,315.189
388,317.293
389,385.718
390,398.112
391,540.455
392,619.575
393,633.277
394,643.432
395,642.364
396,638.272
397,614.122
398,625.759
399,625.544
400,626.675
401,632.119
402,640.157
403,499.642
404,499.079
405,417.852
406,398.94
407,339.841
408,334.566
409,327.327
410,325.967
411,326.547
412,326.643
413,391.093
414,397.867
415,534.618
416,608.732
417,622.256
418,638.359
419,642.108
420,639.433
421,615.893
422,633.315
423,633.555
424,629.819
425,639.494
426,639.251
427,492.357
428,495.222
429,412.787
430,394.05
431,340.991
432,342.867
433,335.531
434,335.801
435,334.8
436,329.452
437,388.982
438,398.384
439,536.606
440,609.219
441,620.722
442,630.808
443,627.65
444,626.316
445,607.761
446,625.724
447,628.061
448,631.951
449,635.374
450,636.08
451,482.349
452,478.343
453,396.942
454,377.468
455,322.737
456,322.972
457,316.7
458,316.382
459,316.266
460,316.42
461,383.366
462,385.344
463,523.436
464,606.913
465,634.013
466,651.517
467,656.726
468,663.345
469,649.679
470,669.151
471,664.713
472,660.525
473,664.987
474,671.99
475,521.871
476,517.193
477,433.306
478,410.393
479,356.987
480,356.454
481,344.961
482,336.615
483,332.657
484,330.612
485,337.499
486,334.449
487,380.848
488,456.275
489,463.219
490,535.641
491,542.997
492,547.778
493,540.035
494,540.74
495,540.983
496,496.454
497,501.316
498,481.712
499,451.408
500,448.079
501,386.399
502,385.131
503,372.89
504,374.901
505,359.623
506,359.261
507,357.181
508,355.262
509,366.07
510,360.281
511,404.567
512,398.934
513,435.88
514,437.052
515,446.419
516,448.548
517,451.073
518,453.28
519,458.795
520,459.888
521,446.076
522,420.855
523,404.051
524,395.804
525,377.355
526,377.128
527,358.136
528,355.752
529,357.414
530,351.084
531,349.422
532,347.535
533,408.275
534,413.799
535,551.247
536,620.96
537,636.056
538,654.371
539,650.142
540,630.62
541,614.41
542,637.782
543,639.985
544,641.477
545,646.548
546,648.9
547,492.594
548,483.935
549,398.706
550,378.123
551,323.771
552,324.031
553,317.29
554,316.91
555,316.989
556,317.455
557,384.855
558,386.095
559,524.238
560,597.758
561,618.589
562,640.21
563,645.737
564,647.012
565,629.922
566,652.38
567,657.813
568,663.002
569,670.708
570,677.392
571,526.7
572,522.988
573,441.778
574,423.051
575,369.332
576,370.617
577,365.754
578,362.699
579,356.475
580,351.085
581,402.91
582,394.576
583,540.625
584,617.933
585,636.749
586,657.848
587,663.968
588,667.027
589,653.107
590,669.842
591,669.919
592,673.755
593,680.708
594,681.351
595,526.806
596,522.009
597,438.919
598,420.65
599,368.348
600,368.321
601,359.946
602,355.031
603,352.884
604,351.605
605,418.8
606,423.227
607,560.297
608,631.561
609,647.874
610,666.033
611,670.722
612,670.786
613,650.529
614,668.775
615,672.148
616,673.524
617,678.099
618,676.526
619,523.84
620,522.638
621,436.053
622,412.592
623,358.341
624,358.631
625,355.152
626,356.457
627,355.984
628,354.052
629,419.256
630,419.39
631,555.356
632,624.277
633,638.183
634,654.441
635,658.899
636,662.775
637,644.746
638,663.568
639,665.07
640,670.346
641,672.997
642,669.592
643,515.793
644,510.409
645,425.945
646,405.318
647,353.636
648,354.958
649,348.574
650,347.092
651,343.734
652,340.953
653,360.464
654,371.825
655,420.666
656,486.894
657,485.95
658,546.443
659,553.139
660,556.446
661,544.348
662,543.334
663,544.135
664,499.96
665,504.508
666,485.262
667,464.462
668,460.105
669,383.9
670,372.545
671,349.345
672,344.992
673,327.358
674,322.538
675,320.982
676,323.355
677,337.888
678,335.33
679,378.738
680,376.759
681,416.485
682,422.815
683,444.659
684,461.892
685,463.247
686,460.249
687,461.253
688,461.441
689,447.283
690,419.764
691,398.6
692,393.365
693,379.569
694,380.761
695,363.66
696,348.798
697,346.448
698,342.717
699,332.565
700,334.332
701,399.678
702,404.699
703,541.418
704,609.168
705,621.426
706,658.056
707,672.479
708,676.966
709,658.355
710,675.977
711,677.284
712,679.964
713,681.678
714,677.402
715,529.299
716,526.242
717,437.802
718,418.808
719,362.465
720,366.468
721,359.823
722,357.118
723,358.122
724,357.332
725,421.846
726,421.949
727,559.37
728,630.428
729,643.34
730,647.576
731,643.548
732,632.673
733,607.165
734,624.024
735,624.211
736,624.215
737,627.595
738,627.794
739,479.14
740,481.414
741,409.314
742,400.419
743,356.325
744,359.615
745,352.757
746,346.576
747,340.577
748,334.22
749,393.501
750,394.423
751,526.045
752,594.77
753,611.903
754,635.431
755,647.539
756,659.538
757,651.999
758,680.906
759,687.117
760,688.32
761,692.234
762,692.19
763,535.95
764,521.475
765,435.502
766,409.429
767,352.791
768,350.2
769,340.084
770,339.038
771,337.136
772,335.035
773,398.288
774,402.71
775,539.128
776,610.709
777,629.198
778,653.716
779,672.979
780,689.771
781,670.595
782,684.652
783,685.507
784,689.206
785,694.212
786,693.943
787,544.041
788,538.831
789,456.925
790,437.095
791,381.432
792,381.396
793,374.993
794,374.761
795,373.467
796,372.042
797,437.426
798,438.046
799,575.639
800,646.079
801,661.419
802,678.172
803,681.821
804,681.544
805,659.023
806,673.492
807,672.39
808,672.115
809,676.016
810,671.939
811,516.002
812,500.985
813,414.319
814,391.082
815,331.368
816,327.718
817,322.115
818,319.189
819,316.367
820,315.858
821,330.441
822,330.503
823,375.689
824,450.139
825,453.15
826,513.49
827,517.235
828,517.541
829,504.406
830,503.875
831,504.569
832,454.056
833,455.424
834,436.651
835,421.083
836,416.946
837,353.133
838,354.991
839,340.44
840,342.26
841,328.639
842,327.196
843,322.357
844,311.441
845,322.253
846,322.275
847,368.954
848,369.907
849,410.812
850,404.237
851,409.149
852,414.625
853,411.718
854,410.251
855,414.815
856,418.707
857,412.757
858,392.249
859,382.85
860,379.354
861,365.987
862,364.996
863,348.647
864,350.311
865,354.747
866,357.003
867,355.822
868,353.985
869,415.946
870,417.292
871,553.858
872,623.895
873,643.034
874,663.108
875,666.67
876,668.319
877,653.268
878,672.913
879,676.723
880,681.055
881,679.374
882,651.733
883,515.38
884,527.254
885,444.72
886,424.788
887,367.791
888,365.676
889,358.946
890,359.791
891,356.912
892,354.173
893,415.028
894,400.659
895,527.446
896,601.345
897,612.823
898,624.988
899,626.381
900,626.77
901,609.209
902,627.654
903,626.314
904,625.929
905,629.476
906,630.895
907,481.643
908,476.768
909,395.781
910,376.855
911,323.543
912,321.689
913,314.79
914,315.215
915,314.743
916,314.61
917,380.118
918,381.495
919,519.991
920,591.885
921,608.953
922,626.979
923,629.294
924,634.075
925,633.401
926,661.2
927,664.377
928,667.007
929,666.624
930,666.889
931,505.99
932,495.297
933,411.347
934,390.454
935,335.993
936,334
937,324.237
938,322.215
939,321.119
940,319.285
941,383.612
942,387.008
943,519.181
944,587.709
945,604.508
946,625.345
947,636.926
948,646.514
949,633.007
950,658.855
951,666.25
952,670.941
953,676.444
954,671.508
955,505.314
956,490.631
957,402.989
958,379.015
959,322.588
960,320.783
961,313.547
962,311.972
963,310.502
964,309.57
965,374.895
966,378.206
967,512.165
968,581.004
969,598.538
970,622.972
971,639.222
972,655.961
973,651.935
974,684.349
975,687.2
976,687.418
977,690.284
978,687.674
979,529.267
980,518.381
981,430.191
982,406.561
983,350.663
984,346.047
985,337.006
986,332.804
987,329.354
988,327.044
989,338.199
990,338.031
991,382.789
992,450.919
993,455.324
994,532.414
995,553.495
996,556.937
997,546.516
998,546.483
999,546.562
1000,499.443
1001,501.817
1002,473.994
1003,454.606
1004,453.783
1005,385.914
1006,381.917
1007,363.226
1008,359.572
1009,346.36
1010,351.073
1011,348.925
1012,340.831
1013,347.295
1014,339.512
1015,378.674
1016,375.729
1017,413.541
1018,413.869
1019,417.106
1020,410.089
1021,406.927
1022,402.453
1023,402.636
1024,402.313
1025,390.138
1026,364.705
1027,348.832
1028,345.149
1029,329.857
1030,329.759
1031,313.778
1032,314.116
1033,326.657
1034,344.556
1035,334.88
1036,321.585
1037,387.066
1038,397.79
1039,535.762
1040,604.745
1041,618.015
1042,630.574
1043,633.861
1044,633.328
1045,612.153
1046,630.202
1047,630.643
1048,631.26
1049,635.141
1050,635.668
1051,485.016
1052,478.209
1053,396.5
1054,378.404
1055,325.959
1056,323.51
1057,315.761
1058,314.952
1059,312.883
1060,310.834
1061,375.282
1062,378.952
1063,513.076
1064,579.928
1065,598.979
1066,620.305
1067,634.702
1068,648.283
1069,643.96
1070,674.724
1071,677.317
1072,679.488
1073,684.519
1074,685.259
1075,534.811
1076,526.3
1077,431.999
1078,401.479
1079,338.862
1080,338.77
1081,334.992
1082,336.449
1083,334.047
1084,331.354
1085,397.68
1086,407.698
1087,542.594
1088,612.723
1089,642.065
1090,665.79
1091,670.617
1092,665.458
1093,636.202
1094,641.879
1095,632.918
1096,629.833
1097,631.243
1098,629.705
1099,477.632
1100,476.441
1101,395.09
1102,375.589
1103,321.996
1104,324.149
1105,317.833
1106,319.983
1107,320.993
1108,320.842
1109,386.759
1110,388.764
1111,526.142
1112,600.984
1113,614.335
1114,629.99
1115,641.062
1116,649.02
1117,622.605
1118,631.587
1119,630.164
1120,632.805
1121,638.238
1122,638.208
1123,482.26
1124,480.871
1125,400.302
1126,380.435
1127,327.821
1128,328.758
1129,322.168
1130,321.027
1131,321.364
1132,322.171
1133,387.664
1134,387.166
1135,522.776
1136,590.633
1137,608.897
1138,625.322
1139,631.867
1140,642.763
1141,627.807
1142,646.781
1143,648.678
1144,647.268
1145,649.514
1146,648.374
1147,487.048
1148,479.268
1149,396.684
1150,377.15
1151,322.268
1152,322.547
1153,317.009
1154,317.389
1155,317.299
1156,316.549
1157,331.331
1158,332.394
1159,378.203
1160,439.412
1161,442.961
1162,502.538
1163,514.213
1164,523.789
1165,512.122
1166,510.748
1167,512.715
1168,468.997
1169,471.251
1170,447.065
1171,418.759
1172,410.281
1173,340.124
1174,339.131
1175,323.607
1176,324.896
1177,311.215
1178,312.072
1179,313.485
1180,312.821
1181,326.043
1182,327.395
1183,372.52
1184,367.974
1185,404.53
1186,401.649
1187,406.661
1188,412.622
1189,418.331
1190,418.01
1191,419.839
1192,420.972
1193,407.681
1194,378.948
1195,357.017
1196,353.146
1197,336.159
1198,335.033
1199,318.307
1200,319.169
1201,315.305
1202,316.839
1203,315.764
1204,315.662
1205,332.064
1206,330.555
1207,375.168
1208,370.977
1209,410.616
1210,410.22
1211,421.566
1212,431.214
1213,435.596
1214,434.167
1215,436.316
1216,437.096
1217,421.871
1218,390.831
1219,367.737
1220,364.201
1221,350.364
1222,349.174
1223,330.931
1224,333.245
1225,337.846
1226,339.255
1227,339.89
1228,339.878
1229,407.634
1230,409.377
1231,546.465
1232,613.465
1233,630.781
1234,648.913
1235,655.279
1236,656.424
1237,637.224
1238,656.292
1239,659.747
1240,659.768
1241,661.42
1242,656.284
1243,500.379
1244,494.647
1245,411.66
1246,392.437
1247,336.565
1248,337.974
1249,335.628
1250,340.199
1251,345.31
1252,349.646
1253,418.182
1254,421.834
1255,563.346
1256,629.345
1257,634.489
1258,641.897
1259,646.806
1260,648.307
1261,631.013
1262,643.867
1263,640.662
1264,641.518
1265,653.292
1266,660.865
1267,506.443
1268,499.883
1269,423.301
1270,411.31
1271,357.606
1272,358.001
1273,353.982
1274,357.165
1275,359.335
1276,357.77
1277,421.394
1278,421.141
1279,557.488
1280,625.788
1281,643.232
1282,662.054
1283,665.725
1284,662.566
1285,642.692
1286,659.003
1287,658.732
1288,659.49
1289,664.852
1290,666.816
1291,515.07
1292,511.867
1293,429.115
1294,411.637
1295,361.508
1296,360.783
1297,353.588
1298,353.457
1299,343.996
1300,337.441
1301,401.887
1302,405.738
1303,542.13
1304,611.355
1305,638.031
1306,659.638
1307,663.947
1308,663.419
1309,646.98
1310,665.971
1311,666.8
1312,666.309
1313,670.378
1314,670.6
1315,512.064
1316,507.292
1317,428.185
1318,410.553
1319,358.276
1320,359.28
1321,351.772
1322,351.003
1323,350.606
1324,350.331
1325,365.934
1326,365.649
1327,412.059
1328,474.912
1329,466.157
1330,519.437
1331,527.779
1332,535.908
1333,526.078
1334,524.378
1335,530.149
1336,487.916
1337,487.169
1338,452.652
1339,431.453
1340,425.722
1341,356.513
1342,353.941
1343,337.797
1344,339.81
1345,328.289
1346,329.165
1347,331.265
1348,330.417
1349,341.985
1350,334.716
1351,372.244
1352,362.826
1353,404.277
1354,400.794
1355,404.625
1356,405.667
1357,405.486
1358,401.988
1359,402.094
1360,402.336
1361,390.481
1362,365.513
1363,350.552
1364,362.113
1365,356.543
1366,358.718
1367,342.143
1368,341.409
1369,343.157
1370,343.061
1371,344.114
1372,344.819
1373,407.25
1374,406.023
1375,544.433
1376,607.784
1377,623.22
1378,634.317
1379,630.574
1380,638.122
1381,624.161
1382,642.79
1383,653.035
1384,667.216
1385,674.518
1386,673.615
1387,521.438
1388,518.623
1389,439.211
1390,421.164
1391,365.938
1392,366.522
1393,357.82
1394,360.045
1395,362.318
1396,361.007
1397,424.371
1398,419.462
1399,553.503
1400,625.865
1401,647.403
1402,663.033
1403,672.171
1404,676.143
1405,658.117
1406,655.109
1407,647.075
1408,651.135
1409,661.431
1410,664.113
1411,505.184
1412,496.109
1413,405.821
1414,381.031
1415,325.468
1416,323.541
1417,315.891
1418,315.47
1419,315.231
1420,315.242
1421,380.975
1422,382.231
1423,520.744
1424,587.417
1425,607.871
1426,624.647
1427,630.632
1428,631.512
1429,612.67
1430,631.354
1431,632.281
1432,632.606
1433,637.25
1434,638.469
1435,489.966
1436,490.705
1437,409.091
1438,390.587
1439,336.807
1440,339.006
1441,335.93
1442,336.904
1443,338.243
1444,340.954
1445,405.544
1446,408.016
1447,547.212
1448,613.154
1449,633.411
1450,651.906
1451,657.555
1452,660.15
1453,638.511
1454,657.533
1455,661.334
1456,663.748
1457,666.949
1458,669.587
1459,513.259
1460,511.431
1461,428.513
1462,409.293
1463,356.877
1464,357.849
1465,351.441
1466,351.307
1467,353.857
1468,355.575
1469,418.89
1470,416.516
1471,555.29
1472,622.441
1473,645.77
1474,659.46
1475,661.534
1476,669.732
1477,654.273
1478,676.035
1479,685.881
1480,689.338
1481,685.937
1482,682.583
1483,522.407
1484,518.522
1485,432.258
1486,409.226
1487,353.968
1488,361.693
1489,364.668
1490,367.818
1491,368.92
1492,367.739
1493,376.361
1494,373.919
1495,418.336
1496,479.669
1497,488.749
1498,553.503
1499,561.734
1500,564.256
1501,550.657
1502,544.021
1503,543.765
1504,499.306
1505,502.817
1506,480.824
1507,454.27
1508,455.058
1509,391.731
1510,391.229
1511,374.931
1512,375.59
1513,362.434
1514,362.865
1515,362.933
1516,362.172
1517,373.727
1518,369.048
